# Result dir: ../vina-ensemble/wt-transition-probe-3/. Performed at 2012-06-27 14:00:11.753241
# Binding energies of docked conformations, attached to ligand center of mass
# Box Cluster      Center_of_mass(x,y,z)       BindingEnergy    Center_of_geometry(x,y,z)
  1   1        -2.897       91.514       118.772       -4.600       -3.092       91.713        119.148
  1   2        -4.063       91.176       119.226       -4.900       -3.691       91.077        119.043
  1   3        -2.932       92.526       120.428       -4.300       -3.257       92.764        120.591
  1   4        -0.579       93.104       119.313       -4.300       -0.976       92.960        119.137
  1   5        -5.968       93.702       121.306       -4.000       -5.933       93.414        121.617
  1   6        -2.433       93.709       120.215       -4.200       -2.707       93.414        120.099
  1   7        -5.328       93.951       119.459       -4.600       -5.647       93.734        119.332
  1   8        -3.400       92.154       119.362       -4.700       -3.003       92.127        119.157
  1   9        -4.105       91.460       119.424       -4.500       -4.365       91.714        119.712
  1   10        -0.331       91.235       118.378       -4.400       -0.523       91.547        118.560
  1   11        -1.582       92.439       118.809       -4.700       -1.439       92.577        119.173
  1   12        -1.894       93.043       118.941       -4.600       -1.949       93.383        119.199
  1   13        -3.970       91.575       118.909       -5.100       -3.627       91.491        118.672
  1   14        -1.839       92.570       118.189       -5.000       -2.031       92.986        118.128
  1   15        -4.651       93.005       119.133       -5.200       -4.449       93.288        119.466
  1   16        -5.307       92.711       119.408       -5.000       -5.115       93.067        119.501
  1   17        -1.253       91.340       118.962       -4.900       -1.673       91.436        119.008
  1   18        -4.718       92.263       119.612       -4.600       -4.325       92.141        119.428
  1   19        -2.919       93.248       119.190       -4.400       -3.342       93.319        119.154
  1   20        -4.486       91.743       119.566       -4.700       -4.072       91.696        119.357
  1   21        -4.741       91.812       119.615       -4.900       -4.336       91.723        119.443
  1   22        -5.753       92.845       118.724       -5.100       -6.141       92.802        118.555
  1   23         0.221       91.847       118.954       -4.500        0.590       91.529        119.075
  1   24        -2.990       93.478       118.801       -4.500       -2.613       93.730        118.955
  1   25        -2.230       92.258       119.199       -4.700       -2.448       92.484        119.538
  1   26        -0.006       90.700       117.786       -4.600       -0.333       90.948        117.850
  1   27        -3.813       92.790       119.261       -4.700       -3.466       92.988        119.167
  1   28        -2.801       91.840       118.226       -4.500       -2.631       91.483        118.075
  1   29        -6.465       93.087       118.523       -5.300       -6.812       93.331        118.319
  1   30        -5.358       92.896       118.588       -4.400       -5.730       92.909        118.409
  1   31        -5.864       93.708       118.930       -4.600       -6.170       93.982        118.880
  1   32        -5.160       92.520       118.801       -4.500       -5.513       92.487        118.594
  1   33        -3.571       91.835       118.487       -4.600       -3.207       91.604        118.416
  1   34        -5.694       92.741       118.272       -5.000       -6.017       93.032        118.250
  1   35        -4.513       92.253       118.329       -5.000       -4.492       91.931        118.068
  1   36        -4.456       92.115       118.462       -4.900       -4.436       91.824        118.178
  1   37        -1.985       93.118       118.878       -4.800       -1.952       93.514        119.051
  1   38        -5.599       92.083       118.906       -4.800       -5.471       91.815        118.614
  1   39        -4.966       92.514       119.113       -4.600       -4.681       92.793        119.239
  1   40        -4.877       92.517       118.787       -4.800       -5.256       92.344        118.701
  1   41        -4.024       91.444       118.690       -4.600       -4.101       91.690        119.066
  1   42         0.398       90.772       117.824       -4.600        0.224       91.091        118.019
  1   43        -5.787       93.277       118.566       -4.700       -5.502       93.574        118.668
  1   44        -4.712       92.957       117.839       -5.000       -4.378       92.700        117.740
  1   45        -4.712       93.071       118.453       -4.800       -4.611       92.760        118.195
  1   46        -2.843       91.053       118.343       -5.000       -2.817       91.515        118.434
  1   47        -3.163       92.162       117.970       -4.600       -2.971       91.823        117.797
  1   48        -2.827       92.509       118.017       -4.400       -2.817       92.117        117.769
  1   49        -2.953       92.344       118.092       -4.500       -2.959       91.946        117.833
  1   50        -4.213       92.987       118.167       -4.600       -3.823       92.833        118.226
  1   51        -5.421       93.071       118.315       -4.700       -5.721       93.366        118.333
  1   52         0.027       91.091       118.469       -4.900       -0.154       91.444        118.611
  1   53        -5.052       92.921       118.600       -4.700       -5.038       92.614        118.330
  1   54        -5.385       92.473       118.259       -4.800       -5.465       92.076        118.007
  1   55        -5.094       93.093       118.841       -4.900       -4.947       92.832        118.552
  1   56        -5.306       92.590       118.998       -4.500       -5.225       92.324        118.700
  1   57        -5.576       92.935       119.071       -4.900       -5.374       92.716        118.781
  1   58        -5.304       92.373       118.484       -5.000       -5.438       92.001        118.218
  1   59        -4.929       93.077       117.907       -4.300       -5.087       92.682        117.764
  1   60        -3.804       92.409       117.971       -4.600       -4.221       92.343        117.934
  1   61        -4.359       93.068       118.283       -4.500       -3.949       93.278        118.276
  1   62        -4.889       92.826       117.930       -4.700       -5.282       92.690        117.834
  1   63        -4.949       92.346       118.476       -4.700       -4.923       92.030        118.219
  1   64        -4.797       93.362       118.340       -4.800       -5.187       93.237        118.236
  1   65        -4.776       92.404       118.890       -4.600       -4.728       92.126        118.566
  1   66         0.090       90.465       117.970       -4.300       -0.073       90.840        118.019
  1   67        -5.310       93.292       118.385       -4.500       -5.680       93.226        118.212
  1   68        -3.112       91.331       117.951       -5.000       -3.065       91.750        118.126
  1   69        -3.234       91.555       117.824       -4.800       -3.203       91.985        117.982
  1   70        -5.392       93.861       118.622       -4.800       -5.707       94.131        118.624
  1   71        -5.426       92.844       118.513       -4.800       -5.794       92.885        118.346
  1   72        -5.524       93.568       118.608       -5.200       -5.871       93.877        118.619
  1   73        -5.093       93.475       118.460       -4.500       -5.477       93.439        118.289
  1   74        -5.682       93.195       118.529       -4.700       -5.370       93.494        118.620
  1   75        -1.184       92.103       118.326       -4.700       -1.397       92.515        118.175
  1   76        -5.025       93.540       118.624       -4.600       -5.445       93.472        118.424
  1   77        -5.137       92.825       119.274       -4.500       -4.748       92.698        119.086
  1   78        -5.634       93.736       118.517       -4.400       -5.971       93.973        118.533
  1   79        -5.506       94.156       118.893       -4.500       -5.351       94.558        118.914
  1   80        -1.035       92.240       118.396       -4.300       -1.265       92.636        118.220
  1   81        -5.150       93.503       118.785       -4.800       -5.507       93.487        118.570
  1   82        -1.288       91.594       118.021       -4.700       -1.543       91.918        117.958
  1   83        -5.251       92.608       118.944       -4.700       -5.186       92.330        118.632
  1   84        -4.136       92.149       118.565       -5.100       -4.350       92.521        118.759
  1   85        -4.443       94.063       118.928       -4.600       -4.177       94.366        119.040
  1   86        -4.307       93.125       118.334       -4.700       -4.597       93.434        118.374
  1   87        -5.145       93.249       118.541       -4.800       -4.730       93.307        118.438
  1   88        -4.640       94.107       118.979       -4.300       -4.386       94.428        119.036
  1   89        -2.195       90.423       118.139       -5.000       -2.029       90.813        118.116
  1   90        -2.519       92.077       117.493       -4.700       -2.338       91.720        117.347
  1   91        -5.199       93.150       118.743       -4.600       -4.780       93.108        118.797
  1   92        -4.032       93.502       119.016       -4.800       -4.417       93.533        118.897
  1   93        -5.160       93.566       118.913       -4.800       -5.483       93.863        118.972
  1   94        -4.491       92.833       118.798       -4.500       -4.469       92.590        118.474
  1   95        -6.356       93.532       119.235       -4.600       -6.710       93.380        118.935
  1   96        -4.965       94.306       119.117       -4.600       -4.877       94.672        119.378
  1   97        -5.776       93.856       118.705       -5.000       -5.472       94.131        118.800
  1   98        -2.286       90.271       117.722       -5.100       -2.209       90.681        117.856
  1   99        -2.583       90.254       118.027       -4.800       -2.391       90.644        118.025
  1   100        -5.476       93.900       119.197       -4.600       -5.201       94.230        119.200
  1   101        -5.316       93.793       118.706       -4.600       -5.655       94.033        118.734
  1   102        -2.863       93.203       118.206       -4.600       -2.527       92.918        118.062
  1   103        -1.281       91.921       118.416       -4.500       -1.470       92.333        118.238
  1   104        -5.686       93.206       118.798       -4.700       -6.040       93.152        118.583
  1   105        -3.412       93.158       118.557       -4.400       -3.067       92.914        118.396
  1   106        -6.042       93.637       118.687       -4.600       -6.397       93.576        118.488
  1   107        -4.715       93.563       118.414       -4.700       -5.099       93.573        118.247
  1   108        -5.131       92.254       118.009       -5.100       -4.734       92.133        117.874
  1   109        -5.928       93.597       118.936       -4.800       -6.205       93.956        118.786
  1   110        -4.911       91.610       119.045       -4.700       -4.868       91.357        118.715
  1   111        -0.942       91.708       118.638       -4.500       -1.332       91.843        118.355
  1   112        -5.572       92.985       118.970       -4.800       -5.939       92.962        118.784
  1   113        -4.856       90.524       118.684       -5.300       -5.291       90.797        118.586
  1   114        -5.896       93.875       118.662       -5.000       -5.610       94.160        118.760
  1   115        -2.962       93.043       118.556       -4.600       -2.916       93.438        118.639
  1   116        -2.244       90.606       118.283       -4.700       -2.071       91.035        118.211
  1   117        -1.211       91.946       117.878       -4.800       -1.432       92.369        117.771
  1   118        -4.980       93.656       118.591       -4.700       -4.739       93.933        118.875
  1   119        -5.292       92.877       118.535       -4.800       -5.666       92.863        118.367
  1   120        -5.324       93.743       119.024       -4.500       -5.688       93.708        118.826
  1   121        -5.729       93.927       118.734       -4.600       -6.129       93.814        118.522
  1   122        -2.746       91.114       117.988       -4.800       -2.684       91.525        118.175
  1   123        -5.545       93.142       118.332       -5.000       -5.122       93.175        118.314
  1   124        -5.649       93.715       118.836       -4.500       -5.975       93.534        118.663
  1   125        -4.689       92.946       119.098       -4.700       -4.449       93.294        119.127
  1   126        -4.663       92.943       118.587       -4.600       -5.056       92.964        118.410
  1   127        -5.968       93.622       118.839       -4.900       -5.659       93.879        118.955


  2   1        -3.168       91.308       118.414       -5.100       -3.368       91.527        118.767
  2   2        -3.516       91.207       118.906       -5.100       -3.821       91.362        119.212
  2   3        -2.662       93.115       120.148       -4.200       -2.442       93.350        120.483
  2   4        -2.981       92.767       118.634       -4.700       -3.268       92.925        118.958
  2   5         3.377       90.634       117.763       -4.400        3.347       90.991        118.015
  2   6         3.254       90.040       117.637       -4.200        3.207       90.429        117.829
  2   7        -5.064       92.728       118.693       -5.200       -4.605       92.658        118.596
  2   8        -4.502       92.239       118.503       -5.500       -4.092       92.217        118.404
  2   9        -4.032       91.149       118.915       -4.900       -4.283       91.394        119.235
  2   10        -5.416       92.801       118.249       -5.300       -5.669       93.145        118.327
  2   11        -5.013       92.794       118.643       -5.300       -4.569       92.781        118.504
  2   12        -1.620       93.067       118.718       -4.700       -2.008       92.907        118.755
  2   13        -4.808       91.322       118.473       -5.600       -4.472       91.266        118.246
  2   14        -1.855       92.727       118.219       -4.800       -2.048       93.147        118.151
  2   15        -4.672       92.909       118.996       -5.300       -4.458       93.181        119.327
  2   16        -5.270       92.702       119.417       -5.100       -5.075       93.052        119.518
  2   17        -4.435       91.037       119.211       -5.300       -4.421       90.812        118.833
  2   18        -4.386       92.010       118.388       -5.300       -4.700       92.254        118.651
  2   19        -2.829       93.237       119.158       -4.400       -3.244       93.325        119.142
  2   20        -5.156       91.826       118.228       -5.100       -5.559       91.847        118.046
  2   21        -4.807       91.943       119.077       -4.700       -4.412       91.835        118.962
  2   22        -5.611       92.275       118.463       -5.500       -6.045       92.283        118.271
  2   23         1.868       91.076       117.653       -4.300        1.568       90.750        117.470
  2   24        -3.532       91.884       118.219       -5.000       -3.822       92.163        118.431
  2   25        -5.396       93.585       118.509       -5.500       -5.140       93.685        118.849
  2   26        -3.010       91.341       117.792       -5.100       -3.134       91.699        117.994
  2   27        -3.191       90.475       118.015       -5.000       -3.253       90.813        118.234
  2   28        -4.168       91.829       117.949       -5.200       -4.097       91.517        117.592
  2   29        -6.430       92.786       117.856       -6.000       -6.091       92.564        117.694
  2   30        -5.320       92.702       118.275       -5.000       -4.999       92.923        118.432
  2   31        -5.484       92.629       118.516       -5.400       -5.148       92.835        118.646
  2   32        -5.913       92.435       118.347       -5.100       -6.255       92.709        118.397
  2   33        -5.902       92.593       118.379       -5.200       -5.483       92.724        118.341
  2   34        -5.689       92.234       118.113       -5.500       -6.000       92.540        118.115
  2   35        -4.685       91.798       118.256       -5.400       -4.645       91.553        117.880
  2   36        -4.411       91.925       118.157       -5.400       -4.352       91.670        117.846
  2   37        -5.627       92.715       118.778       -5.300       -5.366       93.034        118.851
  2   38        -5.164       92.089       118.310       -5.500       -4.744       92.028        118.181
  2   39        -3.442       90.918       118.386       -5.000       -3.663       91.249        118.578
  2   40        -5.797       92.202       118.700       -5.300       -5.974       92.177        118.313
  2   41        -4.440       91.462       118.260       -5.300       -4.350       91.261        117.882
  2   42        -5.792       93.224       119.126       -4.900       -5.593       92.945        118.851
  2   43        -5.944       92.666       118.185       -5.200       -5.632       92.897        118.325
  2   44        -5.034       92.875       117.502       -5.300       -4.662       92.678        117.443
  2   45        -4.497       93.292       117.912       -5.300       -4.451       92.924        117.617
  2   46        -3.906       92.367       118.074       -5.100       -4.176       92.736        118.214
  2   47        -4.194       91.503       117.569       -5.100       -4.062       91.896        117.797
  2   48        -5.691       93.480       118.461       -4.600       -5.237       93.541        118.323
  2   49        -4.990       92.066       117.870       -4.800       -4.571       91.860        117.836
  2   50        -4.898       91.909       117.213       -5.000       -5.357       91.787        117.149
  2   51        -4.513       92.365       117.473       -5.300       -4.419       92.021        117.176
  2   52        -4.709       92.900       118.023       -5.300       -4.958       93.236        118.136
  2   53        -5.014       93.392       118.430       -5.000       -4.824       93.573        118.760
  2   54        -6.012       93.152       117.972       -4.900       -6.300       93.436        117.868
  2   55        -4.640       93.071       118.019       -5.400       -4.921       93.369        118.176
  2   56        -6.227       93.289       118.332       -5.200       -5.759       93.245        118.383
  2   57        -4.554       92.666       117.996       -5.700       -4.800       92.960        118.205
  2   58        -5.673       92.722       118.223       -5.100       -5.952       93.028        118.140
  2   59        -6.643       93.096       117.774       -5.400       -6.440       93.542        117.660
  2   60        -4.751       91.921       117.701       -5.100       -4.305       91.728        117.663
  2   61        -5.853       93.087       117.826       -5.400       -5.390       93.118        117.763
  2   62        -6.204       93.474       117.912       -5.400       -5.747       93.519        117.882
